File: src/acoustic_resonators/asops/processed_data/xrd.csv
2theta,intensity,T
10.0,3.06312e-07,60.0
10.56,5.51362e-07,60.0
11.12,5.51362e-07,60.0
11.68,1.22525e-07,60.0
12.24,1.83787e-07,60.0
12.8,2.4505e-07,60.0
13.36,3.67575e-07,60.0
13.92,4.28837e-07,60.0
14.48,3.06312e-07,60.0
15.04,6.12625e-07,60.0
15.6,2.4505e-07,60.0
16.16,1.83787e-07,60.0
16.72,6.73887e-07,60.0
17.28,1.22525e-07,60.0
17.84,4.28837e-07,60.0
18.4,3.67575e-07,60.0
18.96,5.51362e-07,60.0
19.52,4.901e-07,60.0
20.08,2.4505e-07,60.0
20.64,7.3515e-07,60.0
21.2,9.802e-07,60.0
21.76,1.89914e-06,60.0
22.32,9.61821e-06,60.0
22.88,4.61306e-05,60.0
23.44,1.34777e-06,60.0
24.0,6.73887e-07,60.0
24.56,2.4505e-07,60.0
25.12,2.4505e-07,60.0
25.68,3.06312e-07,60.0
26.24,4.28837e-07,60.0
26.8,3.06312e-07,60.0
27.36,3.67575e-07,60.0
27.92,1.22525e-07,60.0
28.48,4.28837e-07,60.0
29.04,3.67575e-07,60.0
29.6,1.83787e-07,60.0
30.16,1.22525e-07,60.0
30.72,6.73887e-07,60.0
31.28,3.67575e-07,60.0
31.84,3.06312e-07,60.0
32.4,1.22525e-07,60.0
32.96,2.4505e-07,60.0
33.52,1.22525e-07,60.0
34.08,2.4505e-07,60.0
34.64,2.4505e-07,60.0
35.2,3.06312e-07,60.0
35.76,1.83787e-07,60.0
36.32,1.22525e-07,60.0
36.88,1.83787e-07,60.0
37.44,3.06312e-07,60.0
38.0,2.4505e-07,60.0
38.56,3.06312e-07,60.0
39.12,2.4505e-07,60.0
39.68,3.67575e-07,60.0
40.24,3.67575e-07,60.0
40.8,3.67575e-07,60.0
41.36,3.67575e-07,60.0
41.92,6.12625e-07,60.0
42.48,1.10272e-06,60.0
43.04,1.28651e-06,60.0
43.6,2.63429e-06,60.0
44.16,3.00186e-06,60.0
44.72,3.24691e-06,60.0
45.28,8.94432e-06,60.0
45.84,0.000136186,60.0
46.4,0.00485187,60.0
46.96,3.48583e-05,60.0
47.52,7.90286e-06,60.0
48.08,3.4307e-06,60.0
48.64,1.89914e-06,60.0
49.2,1.16399e-06,60.0
49.76,6.12625e-07,60.0
50.32,5.51362e-07,60.0
50.88,6.12625e-07,60.0
51.44,2.4505e-07,60.0
52.0,3.06312e-07,60.0
52.56,6.12625e-08,60.0
53.12,1.83787e-07,60.0
53.68,3.06312e-07,60.0
54.24,3.06312e-07,60.0
54.8,1.83787e-07,60.0
55.36,0.0,60.0
55.92,1.83787e-07,60.0
56.48,6.12625e-08,60.0
57.04,1.83787e-07,60.0
57.6,1.22525e-07,60.0
58.16,1.22525e-07,60.0
58.72,6.12625e-08,60.0
59.28,0.0,60.0
59.84,0.0,60.0
10.38,4.16387e-07,350.0
10.94,4.16387e-07,350.0
11.5,2.37936e-07,350.0
12.06,2.9742e-07,350.0
12.62,7.13807e-07,350.0
13.18,1.78452e-07,350.0
13.74,1.78452e-07,350.0
14.3,4.75871e-07,350.0
14.86,1.18968e-07,350.0
15.42,4.16387e-07,350.0
15.98,2.9742e-07,350.0
16.54,2.37936e-07,350.0
17.1,5.94839e-08,350.0
17.66,2.9742e-07,350.0
18.22,2.9742e-07,350.0
18.78,4.16387e-07,350.0
19.34,3.56904e-07,350.0
19.9,4.16387e-07,350.0
20.46,7.13807e-07,350.0
21.02,5.94839e-07,350.0
21.58,1.42761e-06,350.0
22.14,3.21213e-06,350.0
22.7,0.0015586,350.0
23.26,2.26039e-06,350.0
23.82,8.92259e-07,350.0
24.38,3.56904e-07,350.0
24.94,2.37936e-07,350.0
25.5,1.18968e-07,350.0
26.06,5.94839e-08,350.0
26.62,1.18968e-07,350.0
27.18,1.78452e-07,350.0
27.74,3.56904e-07,350.0
28.3,2.9742e-07,350.0
28.86,2.37936e-07,350.0
29.42,2.37936e-07,350.0
29.98,5.94839e-08,350.0
30.54,1.18968e-07,350.0
31.1,2.9742e-07,350.0
31.66,1.18968e-07,350.0
32.22,4.75871e-07,350.0
32.78,1.78452e-07,350.0
33.34,1.78452e-07,350.0
33.9,2.37936e-07,350.0
34.46,1.18968e-07,350.0
35.02,5.94839e-08,350.0
35.58,1.18968e-07,350.0
36.14,2.37936e-07,350.0
36.7,3.56904e-07,350.0
37.26,5.94839e-08,350.0
37.82,3.56904e-07,350.0
38.38,1.78452e-07,350.0
38.94,2.37936e-07,350.0
39.5,5.94839e-07,350.0
40.06,4.16387e-07,350.0
40.62,3.56904e-07,350.0
41.18,6.54323e-07,350.0
41.74,7.13807e-07,350.0
42.3,7.13807e-07,350.0
42.86,9.51743e-07,350.0
43.42,1.30865e-06,350.0
43.98,1.96297e-06,350.0
44.54,3.688e-06,350.0
45.1,6.48375e-06,350.0
45.66,2.29608e-05,350.0
46.22,0.000191717,350.0
46.78,8.25042e-05,350.0
47.34,1.21347e-05,350.0
47.9,3.50955e-06,350.0
48.46,2.08194e-06,350.0
49.02,1.18968e-06,350.0
49.58,9.51743e-07,350.0
50.14,3.56904e-07,350.0
50.7,9.51743e-07,350.0
51.26,5.94839e-07,350.0
51.82,2.37936e-07,350.0
52.38,1.18968e-07,350.0
52.94,2.9742e-07,350.0
53.5,2.37936e-07,350.0
54.06,3.56904e-07,350.0
54.62,2.37936e-07,350.0
55.18,5.94839e-08,350.0
55.74,0.0,350.0
56.3,1.18968e-07,350.0
56.86,0.0,350.0
57.42,1.78452e-07,350.0
57.98,1.18968e-07,350.0
58.54,5.94839e-08,350.0
59.1,5.94839e-08,350.0
59.66,0.0,350.0
10.2,4.52967e-07,550.0
10.76,4.52967e-07,550.0
11.32,6.47096e-07,550.0
11.88,3.88257e-07,550.0
12.44,5.82386e-07,550.0
13.0,4.52967e-07,550.0
13.56,3.23548e-07,550.0
14.12,3.88257e-07,550.0
14.68,2.58838e-07,550.0
15.24,1.94129e-07,550.0
15.8,1.94129e-07,550.0
16.36,1.29419e-07,550.0
16.92,3.88257e-07,550.0
17.48,3.88257e-07,550.0
18.04,3.88257e-07,550.0
18.6,3.23548e-07,550.0
19.16,7.76515e-07,550.0
19.72,4.52967e-07,550.0
20.28,6.47096e-07,550.0
20.84,9.70643e-07,550.0
21.4,1.94129e-07,550.0
21.96,2.07071e-06,550.0
22.52,3.7661e-05,550.0
23.08,7.31218e-06,550.0
23.64,1.74716e-06,550.0
24.2,3.88257e-07,550.0
24.76,1.94129e-07,550.0
25.32,5.17676e-07,550.0
25.88,6.47096e-08,550.0
26.44,2.58838e-07,550.0
27.0,2.58838e-07,550.0
27.56,1.94129e-07,550.0
28.12,2.58838e-07,550.0
28.68,1.94129e-07,550.0
29.24,3.23548e-07,550.0
29.8,3.23548e-07,550.0
30.36,6.47096e-08,550.0
30.92,2.58838e-07,550.0
31.48,2.58838e-07,550.0
32.04,6.47096e-08,550.0
32.6,0.0,550.0
33.16,1.29419e-07,550.0
33.72,1.94129e-07,550.0
34.28,2.58838e-07,550.0
34.84,3.23548e-07,550.0
35.4,2.58838e-07,550.0
35.96,1.94129e-07,550.0
36.52,1.29419e-07,550.0
37.08,3.23548e-07,550.0
37.64,6.47096e-08,550.0
38.2,0.0,550.0
38.76,2.58838e-07,550.0
39.32,2.58838e-07,550.0
39.88,3.23548e-07,550.0
40.44,1.94129e-07,550.0
41.0,3.88257e-07,550.0
41.56,5.17676e-07,550.0
42.12,7.11805e-07,550.0
42.68,3.88257e-07,550.0
43.24,1.3589e-06,550.0
43.8,2.006e-06,550.0
44.36,2.84722e-06,550.0
44.92,5.62973e-06,550.0
45.48,1.52715e-05,550.0
46.04,0.000161062,550.0
46.6,0.000601799,550.0
47.16,2.1613e-05,550.0
47.72,6.72979e-06,550.0
48.28,3.04135e-06,550.0
48.84,1.74716e-06,550.0
49.4,1.42361e-06,550.0
49.96,7.11805e-07,550.0
50.52,3.88257e-07,550.0
51.08,4.52967e-07,550.0
51.64,1.29419e-07,550.0
52.2,1.29419e-07,550.0
52.76,2.58838e-07,550.0
53.32,1.29419e-07,550.0
53.88,2.58838e-07,550.0
54.44,6.47096e-08,550.0
55.0,6.47096e-08,550.0
55.56,1.29419e-07,550.0
56.12,0.0,550.0
56.68,0.0,550.0
57.24,1.94129e-07,550.0
57.8,6.47096e-08,550.0
58.36,0.0,550.0
58.92,6.47096e-08,550.0
59.48,2.58838e-07,550.0
40.02,6.27064e-08,750.0
40.58,4.38945e-07,750.0
41.14,2.50826e-07,750.0
41.7,3.76239e-07,750.0
42.26,4.38945e-07,750.0
42.82,1.0033e-06,750.0
43.38,8.15184e-07,750.0
43.94,1.69307e-06,750.0
44.5,2.63367e-06,750.0
45.06,5.76899e-06,750.0
45.62,1.53631e-05,750.0
46.18,0.000131119,750.0
46.74,0.000117449,750.0
47.3,1.21023e-05,750.0
47.86,4.07592e-06,750.0
48.42,1.69307e-06,750.0
48.98,1.06601e-06,750.0
49.54,5.01651e-07,750.0
50.1,8.7789e-07,750.0
50.66,4.38945e-07,750.0
51.22,1.25413e-07,750.0
51.78,1.88119e-07,750.0
52.34,6.27064e-08,750.0
52.9,6.27064e-08,750.0
53.46,2.50826e-07,750.0
54.02,0.0,750.0
54.58,3.76239e-07,750.0
55.0,6.27064e-08,750.0