File: src/acoustic_resonators/asops/processed_data/xrd_FM308.csv
2theta,intensity,temperature,ID
10.0,3.06312e-07,60,FM308_membrane
10.02,5.51362e-07,60,FM308_membrane
10.04,3.67575e-07,60,FM308_membrane
10.06,6.12625e-07,60,FM308_membrane
10.08,6.73887e-07,60,FM308_membrane
10.1,6.12625e-07,60,FM308_membrane
10.12,4.901e-07,60,FM308_membrane
10.14,3.06312e-07,60,FM308_membrane
10.16,4.901e-07,60,FM308_membrane
10.18,4.28837e-07,60,FM308_membrane
10.2,6.12625e-07,60,FM308_membrane
10.22,1.22525e-07,60,FM308_membrane
10.24,7.96412e-07,60,FM308_membrane
10.26,3.67575e-07,60,FM308_membrane
10.28,3.06312e-07,60,FM308_membrane
10.3,4.28837e-07,60,FM308_membrane
10.32,6.12625e-07,60,FM308_membrane
10.34,4.28837e-07,60,FM308_membrane
10.36,2.4505e-07,60,FM308_membrane
10.38,1.83787e-07,60,FM308_membrane
10.4,4.901e-07,60,FM308_membrane
10.42,6.12625e-08,60,FM308_membrane
10.44,2.4505e-07,60,FM308_membrane
10.46,5.51362e-07,60,FM308_membrane
10.48,1.83787e-07,60,FM308_membrane
10.5,4.901e-07,60,FM308_membrane
10.52,6.12625e-07,60,FM308_membrane
10.54,4.28837e-07,60,FM308_membrane
10.56,5.51362e-07,60,FM308_membrane
10.58,4.28837e-07,60,FM308_membrane
10.6,3.67575e-07,60,FM308_membrane
10.62,1.22525e-07,60,FM308_membrane
10.64,3.06312e-07,60,FM308_membrane
10.66,6.12625e-07,60,FM308_membrane
10.68,1.83787e-07,60,FM308_membrane
10.7,7.3515e-07,60,FM308_membrane
10.72,4.28837e-07,60,FM308_membrane
10.74,5.51362e-07,60,FM308_membrane
10.76,1.83787e-07,60,FM308_membrane
10.78,6.12625e-07,60,FM308_membrane
10.8,2.4505e-07,60,FM308_membrane
10.82,4.901e-07,60,FM308_membrane
10.84,2.4505e-07,60,FM308_membrane
10.86,2.4505e-07,60,FM308_membrane
10.88,3.67575e-07,60,FM308_membrane
10.9,3.06312e-07,60,FM308_membrane
10.92,4.28837e-07,60,FM308_membrane
10.94,4.28837e-07,60,FM308_membrane
10.96,3.06312e-07,60,FM308_membrane
10.98,4.901e-07,60,FM308_membrane
11.0,4.901e-07,60,FM308_membrane
11.02,6.73887e-07,60,FM308_membrane
11.04,4.28837e-07,60,FM308_membrane
11.06,6.12625e-07,60,FM308_membrane
11.08,4.28837e-07,60,FM308_membrane
11.1,1.83787e-07,60,FM308_membrane
11.12,5.51362e-07,60,FM308_membrane
11.14,4.901e-07,60,FM308_membrane
11.16,2.4505e-07,60,FM308_membrane
11.18,3.67575e-07,60,FM308_membrane
11.2,3.67575e-07,60,FM308_membrane
11.22,4.28837e-07,60,FM308_membrane
11.24,2.4505e-07,60,FM308_membrane
11.26,4.28837e-07,60,FM308_membrane
11.28,6.73887e-07,60,FM308_membrane
11.3,1.83787e-07,60,FM308_membrane
11.32,5.51362e-07,60,FM308_membrane
11.34,2.4505e-07,60,FM308_membrane
11.36,3.06312e-07,60,FM308_membrane
11.38,1.83787e-07,60,FM308_membrane
11.4,3.06312e-07,60,FM308_membrane
11.42,2.4505e-07,60,FM308_membrane
11.44,3.67575e-07,60,FM308_membrane
11.46,3.06312e-07,60,FM308_membrane
11.48,4.28837e-07,60,FM308_membrane
11.5,2.4505e-07,60,FM308_membrane
11.52,4.28837e-07,60,FM308_membrane
11.54,6.12625e-07,60,FM308_membrane
11.56,3.67575e-07,60,FM308_membrane
11.58,4.28837e-07,60,FM308_membrane
11.6,6.12625e-08,60,FM308_membrane
11.62,3.06312e-07,60,FM308_membrane
11.64,6.12625e-08,60,FM308_membrane
11.66,4.28837e-07,60,FM308_membrane
11.68,1.22525e-07,60,FM308_membrane
11.7,3.06312e-07,60,FM308_membrane
11.72,3.06312e-07,60,FM308_membrane
11.74,3.67575e-07,60,FM308_membrane
11.76,3.06312e-07,60,FM308_membrane
11.78,3.67575e-07,60,FM308_membrane
11.8,4.28837e-07,60,FM308_membrane
11.82,3.06312e-07,60,FM308_membrane
11.84,1.83787e-07,60,FM308_membrane
11.86,3.06312e-07,60,FM308_membrane
11.88,5.51362e-07,60,FM308_membrane
11.9,4.28837e-07,60,FM308_membrane
11.92,5.51362e-07,60,FM308_membrane
11.94,5.51362e-07,60,FM308_membrane
11.96,3.06312e-07,60,FM308_membrane
11.98,4.28837e-07,60,FM308_membrane
12.0,4.901e-07,60,FM308_membrane
12.02,1.22525e-07,60,FM308_membrane
12.04,3.67575e-07,60,FM308_membrane
12.06,5.51362e-07,60,FM308_membrane
12.08,6.12625e-08,60,FM308_membrane
12.1,3.06312e-07,60,FM308_membrane
12.12,4.28837e-07,60,FM308_membrane
12.14,3.06312e-07,60,FM308_membrane
12.16,4.901e-07,60,FM308_membrane
12.18,1.22525e-07,60,FM308_membrane
12.2,1.83787e-07,60,FM308_membrane
12.22,3.06312e-07,60,FM308_membrane
12.24,1.83787e-07,60,FM308_membrane
12.26,4.28837e-07,60,FM308_membrane
12.28,1.83787e-07,60,FM308_membrane
12.3,6.12625e-07,60,FM308_membrane
12.32,6.12625e-08,60,FM308_membrane
12.34,4.28837e-07,60,FM308_membrane
12.36,6.73887e-07,60,FM308_membrane
12.38,2.4505e-07,60,FM308_membrane
12.4,3.06312e-07,60,FM308_membrane
12.42,4.28837e-07,60,FM308_membrane
12.44,3.67575e-07,60,FM308_membrane
12.46,3.67575e-07,60,FM308_membrane
12.48,3.06312e-07,60,FM308_membrane
12.5,3.06312e-07,60,FM308_membrane
12.52,3.06312e-07,60,FM308_membrane
12.54,5.51362e-07,60,FM308_membrane
12.56,4.28837e-07,60,FM308_membrane
12.58,1.83787e-07,60,FM308_membrane
12.6,3.06312e-07,60,FM308_membrane
12.62,3.67575e-07,60,FM308_membrane
12.64,3.67575e-07,60,FM308_membrane
12.66,6.12625e-07,60,FM308_membrane
12.68,3.67575e-07,60,FM308_membrane
12.7,5.51362e-07,60,FM308_membrane
12.72,1.83787e-07,60,FM308_membrane
12.74,2.4505e-07,60,FM308_membrane
12.76,3.67575e-07,60,FM308_membrane
12.78,3.67575e-07,60,FM308_membrane
12.8,2.4505e-07,60,FM308_membrane
12.82,5.51362e-07,60,FM308_membrane
12.84,4.28837e-07,60,FM308_membrane
12.86,3.06312e-07,60,FM308_membrane
12.88,2.4505e-07,60,FM308_membrane
12.9,3.06312e-07,60,FM308_membrane
12.92,2.4505e-07,60,FM308_membrane
12.94,5.51362e-07,60,FM308_membrane
12.96,7.3515e-07,60,FM308_membrane
12.98,1.22525e-07,60,FM308_membrane
13.0,2.4505e-07,60,FM308_membrane
13.02,4.901e-07,60,FM308_membrane
13.04,2.4505e-07,60,FM308_membrane
13.06,6.12625e-07,60,FM308_membrane
13.08,1.83787e-07,60,FM308_membrane
13.1,1.22525e-07,60,FM308_membrane
13.12,2.4505e-07,60,FM308_membrane
13.14,1.83787e-07,60,FM308_membrane
13.16,6.73887e-07,60,FM308_membrane
13.18,3.67575e-07,60,FM308_membrane
13.2,2.4505e-07,60,FM308_membrane
13.22,2.4505e-07,60,FM308_membrane
13.24,3.06312e-07,60,FM308_membrane
13.26,6.12625e-07,60,FM308_membrane
13.28,1.22525e-07,60,FM308_membrane
13.3,1.83787e-07,60,FM308_membrane
13.32,1.22525e-07,60,FM308_membrane
13.34,6.12625e-08,60,FM308_membrane
13.36,3.67575e-07,60,FM308_membrane
13.38,6.12625e-08,60,FM308_membrane
13.4,1.83787e-07,60,FM308_membrane
13.42,1.22525e-07,60,FM308_membrane
13.44,4.901e-07,60,FM308_membrane
13.46,2.4505e-07,60,FM308_membrane
13.48,4.901e-07,60,FM308_membrane
13.5,3.67575e-07,60,FM308_membrane
13.52,1.83787e-07,60,FM308_membrane
13.54,2.4505e-07,60,FM308_membrane
13.56,4.28837e-07,60,FM308_membrane
13.58,4.901e-07,60,FM308_membrane
13.6,4.901e-07,60,FM308_membrane
13.62,6.12625e-07,60,FM308_membrane
13.64,4.28837e-07,60,FM308_membrane
13.66,3.67575e-07,60,FM308_membrane
13.68,3.06312e-07,60,FM308_membrane
13.7,3.67575e-07,60,FM308_membrane
13.72,1.22525e-07,60,FM308_membrane
13.74,3.06312e-07,60,FM308_membrane
13.76,4.28837e-07,60,FM308_membrane
13.78,4.901e-07,60,FM308_membrane
13.8,4.28837e-07,60,FM308_membrane
13.82,3.06312e-07,60,FM308_membrane
13.84,4.901e-07,60,FM308_membrane
13.86,3.06312e-07,60,FM308_membrane
13.88,4.28837e-07,60,FM308_membrane
13.9,4.901e-07,60,FM308_membrane
13.92,4.28837e-07,60,FM308_membrane
13.94,2.4505e-07,60,FM308_membrane
13.96,2.4505e-07,60,FM308_membrane
13.98,1.83787e-07,60,FM308_membrane
14.0,3.06312e-07,60,FM308_membrane
14.02,2.4505e-07,60,FM308_membrane
14.04,6.12625e-07,60,FM308_membrane
14.06,4.901e-07,60,FM308_membrane
14.08,5.51362e-07,60,FM308_membrane
14.1,6.12625e-08,60,FM308_membrane
14.12,2.4505e-07,60,FM308_membrane
14.14,1.83787e-07,60,FM308_membrane
14.16,3.67575e-07,60,FM308_membrane
14.18,3.06312e-07,60,FM308_membrane
14.2,6.12625e-07,60,FM308_membrane
14.22,3.67575e-07,60,FM308_membrane
14.24,3.67575e-07,60,FM308_membrane
14.26,4.28837e-07,60,FM308_membrane
14.28,4.901e-07,60,FM308_membrane
14.3,1.83787e-07,60,FM308_membrane
14.32,1.83787e-07,60,FM308_membrane
14.34,1.22525e-07,60,FM308_membrane
14.36,1.83787e-07,60,FM308_membrane
14.38,4.28837e-07,60,FM308_membrane
14.4,2.4505e-07,60,FM308_membrane
14.42,7.96412e-07,60,FM308_membrane
14.44,4.901e-07,60,FM308_membrane
14.46,0.0,60,FM308_membrane
14.48,3.06312e-07,60,FM308_membrane
14.5,2.4505e-07,60,FM308_membrane
14.52,3.06312e-07,60,FM308_membrane
14.54,5.51362e-07,60,FM308_membrane
14.56,2.4505e-07,60,FM308_membrane
14.58,3.67575e-07,60,FM308_membrane
14.6,3.06312e-07,60,FM308_membrane
14.62,1.83787e-07,60,FM308_membrane
14.64,1.83787e-07,60,FM308_membrane
14.66,2.4505e-07,60,FM308_membrane
14.68,4.901e-07,60,FM308_membrane
14.7,3.67575e-07,60,FM308_membrane
14.72,2.4505e-07,60,FM308_membrane
14.74,1.22525e-07,60,FM308_membrane
14.76,4.28837e-07,60,FM308_membrane
14.78,1.83787e-07,60,FM308_membrane
14.8,2.4505e-07,60,FM308_membrane
14.82,1.83787e-07,60,FM308_membrane
14.84,2.4505e-07,60,FM308_membrane
14.86,3.06312e-07,60,FM308_membrane
14.88,4.28837e-07,60,FM308_membrane
14.9,1.22525e-07,60,FM308_membrane
14.92,4.28837e-07,60,FM308_membrane
14.94,3.06312e-07,60,FM308_membrane
14.96,3.67575e-07,60,FM308_membrane
14.98,1.83787e-07,60,FM308_membrane
15.0,3.06312e-07,60,FM308_membrane
15.02,1.22525e-07,60,FM308_membrane
15.04,6.12625e-07,60,FM308_membrane
15.06,3.06312e-07,60,FM308_membrane
15.08,2.4505e-07,60,FM308_membrane
15.1,1.83787e-07,60,FM308_membrane
15.12,3.67575e-07,60,FM308_membrane
15.14,1.83787e-07,60,FM308_membrane
15.16,2.4505e-07,60,FM308_membrane
15.18,4.901e-07,60,FM308_membrane
15.2,3.67575e-07,60,FM308_membrane
15.22,3.06312e-07,60,FM308_membrane
15.24,2.4505e-07,60,FM308_membrane
15.26,4.28837e-07,60,FM308_membrane
15.28,4.901e-07,60,FM308_membrane
15.3,1.22525e-07,60,FM308_membrane
15.32,3.67575e-07,60,FM308_membrane
15.34,3.06312e-07,60,FM308_membrane
15.36,3.67575e-07,60,FM308_membrane
15.38,1.22525e-07,60,FM308_membrane
15.4,1.22525e-07,60,FM308_membrane
15.42,4.28837e-07,60,FM308_membrane
15.44,5.51362e-07,60,FM308_membrane
15.46,2.4505e-07,60,FM308_membrane
15.48,4.28837e-07,60,FM308_membrane
15.5,3.06312e-07,60,FM308_membrane
15.52,2.4505e-07,60,FM308_membrane
15.54,4.28837e-07,60,FM308_membrane
15.56,1.83787e-07,60,FM308_membrane
15.58,3.67575e-07,60,FM308_membrane
15.6,2.4505e-07,60,FM308_membrane
15.62,7.96412e-07,60,FM308_membrane
15.64,1.22525e-07,60,FM308_membrane
15.66,2.4505e-07,60,FM308_membrane
15.68,1.83787e-07,60,FM308_membrane
15.7,3.06312e-07,60,FM308_membrane
15.72,3.06312e-07,60,FM308_membrane
15.74,4.28837e-07,60,FM308_membrane
15.76,4.901e-07,60,FM308_membrane
15.78,3.06312e-07,60,FM308_membrane
15.8,1.22525e-07,60,FM308_membrane
15.82,2.4505e-07,60,FM308_membrane
15.84,4.28837e-07,60,FM308_membrane
15.86,4.901e-07,60,FM308_membrane
15.88,5.51362e-07,60,FM308_membrane
15.9,4.28837e-07,60,FM308_membrane
15.92,5.51362e-07,60,FM308_membrane
15.94,5.51362e-07,60,FM308_membrane
15.96,3.06312e-07,60,FM308_membrane
15.98,3.67575e-07,60,FM308_membrane
16.0,4.901e-07,60,FM308_membrane
16.02,3.67575e-07,60,FM308_membrane
16.04,5.51362e-07,60,FM308_membrane
16.06,4.28837e-07,60,FM308_membrane
16.08,4.28837e-07,60,FM308_membrane
16.1,6.12625e-07,60,FM308_membrane
16.12,3.67575e-07,60,FM308_membrane
16.14,1.22525e-07,60,FM308_membrane
16.16,1.83787e-07,60,FM308_membrane
16.18,2.4505e-07,60,FM308_membrane
16.2,4.28837e-07,60,FM308_membrane
16.22,1.83787e-07,60,FM308_membrane
16.24,4.28837e-07,60,FM308_membrane
16.26,2.4505e-07,60,FM308_membrane
16.28,3.06312e-07,60,FM308_membrane
16.3,1.83787e-07,60,FM308_membrane
16.32,3.06312e-07,60,FM308_membrane
16.34,5.51362e-07,60,FM308_membrane
16.36,1.22525e-07,60,FM308_membrane
16.38,3.06312e-07,60,FM308_membrane
16.4,1.83787e-07,60,FM308_membrane
16.42,3.06312e-07,60,FM308_membrane
16.44,3.06312e-07,60,FM308_membrane
16.46,5.51362e-07,60,FM308_membrane
16.48,3.06312e-07,60,FM308_membrane
16.5,3.06312e-07,60,FM308_membrane
16.52,3.06312e-07,60,FM308_membrane
16.54,1.83787e-07,60,FM308_membrane
16.56,2.4505e-07,60,FM308_membrane
16.58,3.06312e-07,60,FM308_membrane
16.6,1.22525e-07,60,FM308_membrane
16.62,1.83787e-07,60,FM308_membrane
16.64,4.28837e-07,60,FM308_membrane
16.66,1.83787e-07,60,FM308_membrane
16.68,3.06312e-07,60,FM308_membrane
16.7,2.4505e-07,60,FM308_membrane
16.72,6.73887e-07,60,FM308_membrane
16.74,1.83787e-07,60,FM308_membrane
16.76,1.83787e-07,60,FM308_membrane
16.78,1.83787e-07,60,FM308_membrane
16.8,3.67575e-07,60,FM308_membrane
16.82,1.83787e-07,60,FM308_membrane
16.84,3.67575e-07,60,FM308_membrane
16.86,5.51362e-07,60,FM308_membrane
16.88,5.51362e-07,60,FM308_membrane
16.9,3.06312e-07,60,FM308_membrane
16.92,3.06312e-07,60,FM308_membrane
16.94,2.4505e-07,60,FM308_membrane
16.96,1.83787e-07,60,FM308_membrane
16.98,1.22525e-07,60,FM308_membrane
17.0,3.67575e-07,60,FM308_membrane
17.02,2.4505e-07,60,FM308_membrane
17.04,1.83787e-07,60,FM308_membrane
17.06,5.51362e-07,60,FM308_membrane
17.08,1.83787e-07,60,FM308_membrane
17.1,6.12625e-08,60,FM308_membrane
17.12,4.28837e-07,60,FM308_membrane
17.14,4.28837e-07,60,FM308_membrane
17.16,3.67575e-07,60,FM308_membrane
17.18,5.51362e-07,60,FM308_membrane
17.2,1.83787e-07,60,FM308_membrane
17.22,2.4505e-07,60,FM308_membrane
17.24,3.67575e-07,60,FM308_membrane
17.26,3.06312e-07,60,FM308_membrane
17.28,1.22525e-07,60,FM308_membrane
17.3,2.4505e-07,60,FM308_membrane
17.32,3.06312e-07,60,FM308_membrane
17.34,1.83787e-07,60,FM308_membrane
17.36,3.06312e-07,60,FM308_membrane
17.38,3.67575e-07,60,FM308_membrane
17.4,1.83787e-07,60,FM308_membrane
17.42,3.06312e-07,60,FM308_membrane
17.44,4.28837e-07,60,FM308_membrane
17.46,4.28837e-07,60,FM308_membrane
17.48,1.83787e-07,60,FM308_membrane
17.5,6.12625e-08,60,FM308_membrane
17.52,1.22525e-07,60,FM308_membrane
17.54,1.83787e-07,60,FM308_membrane
17.56,3.67575e-07,60,FM308_membrane
17.58,4.28837e-07,60,FM308_membrane
17.6,6.12625e-07,60,FM308_membrane
17.62,3.06312e-07,60,FM308_membrane
17.64,1.83787e-07,60,FM308_membrane
17.66,2.4505e-07,60,FM308_membrane
17.68,3.67575e-07,60,FM308_membrane
17.7,1.83787e-07,60,FM308_membrane
17.72,2.4505e-07,60,FM308_membrane
17.74,5.51362e-07,60,FM308_membrane
17.76,1.83787e-07,60,FM308_membrane
17.78,4.901e-07,60,FM308_membrane
17.8,2.4505e-07,60,FM308_membrane
17.82,4.901e-07,60,FM308_membrane
17.84,4.28837e-07,60,FM308_membrane
17.86,1.83787e-07,60,FM308_membrane
17.88,4.28837e-07,60,FM308_membrane
17.9,1.22525e-07,60,FM308_membrane
17.92,4.28837e-07,60,FM308_membrane
17.94,6.12625e-07,60,FM308_membrane
17.96,6.12625e-08,60,FM308_membrane
17.98,3.67575e-07,60,FM308_membrane
18.0,1.83787e-07,60,FM308_membrane
18.02,4.28837e-07,60,FM308_membrane
18.04,4.901e-07,60,FM308_membrane
18.06,4.901e-07,60,FM308_membrane
18.08,2.4505e-07,60,FM308_membrane
18.1,3.67575e-07,60,FM308_membrane
18.12,5.51362e-07,60,FM308_membrane
18.14,6.73887e-07,60,FM308_membrane
18.16,2.4505e-07,60,FM308_membrane
18.18,6.12625e-07,60,FM308_membrane
18.2,5.51362e-07,60,FM308_membrane
18.22,4.901e-07,60,FM308_membrane
18.24,1.22525e-07,60,FM308_membrane
18.26,1.83787e-07,60,FM308_membrane
18.28,1.83787e-07,60,FM308_membrane
18.3,3.06312e-07,60,FM308_membrane
18.32,3.67575e-07,60,FM308_membrane
18.34,6.12625e-08,60,FM308_membrane
18.36,1.83787e-07,60,FM308_membrane
18.38,2.4505e-07,60,FM308_membrane
18.4,3.67575e-07,60,FM308_membrane
18.42,1.22525e-07,60,FM308_membrane
18.44,2.4505e-07,60,FM308_membrane
18.46,3.67575e-07,60,FM308_membrane
18.48,2.4505e-07,60,FM308_membrane
18.5,3.06312e-07,60,FM308_membrane
18.52,2.4505e-07,60,FM308_membrane
18.54,3.06312e-07,60,FM308_membrane
18.56,1.83787e-07,60,FM308_membrane
18.58,5.51362e-07,60,FM308_membrane
18.6,1.22525e-07,60,FM308_membrane
18.62,3.67575e-07,60,FM308_membrane
18.64,2.4505e-07,60,FM308_membrane
18.66,2.4505e-07,60,FM308_membrane
18.68,5.51362e-07,60,FM308_membrane
18.7,2.4505e-07,60,FM308_membrane
18.72,3.67575e-07,60,FM308_membrane
18.74,3.67575e-07,60,FM308_membrane
18.76,4.28837e-07,60,FM308_membrane
18.78,3.67575e-07,60,FM308_membrane
18.8,3.06312e-07,60,FM308_membrane
18.82,3.06312e-07,60,FM308_membrane
18.84,3.06312e-07,60,FM308_membrane
18.86,1.83787e-07,60,FM308_membrane
18.88,4.28837e-07,60,FM308_membrane
18.9,3.67575e-07,60,FM308_membrane
18.92,4.28837e-07,60,FM308_membrane
18.94,4.28837e-07,60,FM308_membrane
18.96,5.51362e-07,60,FM308_membrane
18.98,4.28837e-07,60,FM308_membrane
19.0,2.4505e-07,60,FM308_membrane
19.02,3.67575e-07,60,FM308_membrane
19.04,3.06312e-07,60,FM308_membrane
19.06,6.12625e-08,60,FM308_membrane
19.08,1.83787e-07,60,FM308_membrane
19.1,3.06312e-07,60,FM308_membrane
19.12,3.06312e-07,60,FM308_membrane
19.14,3.67575e-07,60,FM308_membrane
19.16,3.67575e-07,60,FM308_membrane
19.18,3.67575e-07,60,FM308_membrane
19.2,4.901e-07,60,FM308_membrane
19.22,4.901e-07,60,FM308_membrane
19.24,1.22525e-07,60,FM308_membrane
19.26,3.67575e-07,60,FM308_membrane
19.28,3.67575e-07,60,FM308_membrane
19.3,3.67575e-07,60,FM308_membrane
19.32,1.22525e-07,60,FM308_membrane
19.34,2.4505e-07,60,FM308_membrane
19.36,5.51362e-07,60,FM308_membrane
19.38,4.901e-07,60,FM308_membrane
19.4,3.67575e-07,60,FM308_membrane
19.42,4.28837e-07,60,FM308_membrane
19.44,2.4505e-07,60,FM308_membrane
19.46,7.96412e-07,60,FM308_membrane
19.48,4.901e-07,60,FM308_membrane
19.5,6.73887e-07,60,FM308_membrane
19.52,4.901e-07,60,FM308_membrane
19.54,4.28837e-07,60,FM308_membrane
19.56,3.06312e-07,60,FM308_membrane
19.58,6.12625e-07,60,FM308_membrane
19.6,4.28837e-07,60,FM308_membrane
19.62,3.67575e-07,60,FM308_membrane
19.64,4.28837e-07,60,FM308_membrane
19.66,4.901e-07,60,FM308_membrane
19.68,6.12625e-07,60,FM308_membrane
19.7,2.4505e-07,60,FM308_membrane
19.72,1.83787e-07,60,FM308_membrane
[...]
54.46,1.13513e-07,20,FM308_stack
54.48,2.27027e-07,20,FM308_stack
54.5,1.13513e-07,20,FM308_stack
54.52,2.27027e-07,20,FM308_stack
54.54,2.27027e-07,20,FM308_stack
54.56,1.13513e-07,20,FM308_stack
54.58,1.13513e-07,20,FM308_stack
54.6,1.13513e-07,20,FM308_stack
54.62,1.13513e-07,20,FM308_stack
54.64,1.13513e-07,20,FM308_stack
54.66,3.4054e-07,20,FM308_stack
54.68,2.27027e-07,20,FM308_stack
54.7,0.0,20,FM308_stack
54.72,3.4054e-07,20,FM308_stack
54.74,1.13513e-07,20,FM308_stack
54.76,2.27027e-07,20,FM308_stack
54.78,1.13513e-07,20,FM308_stack
54.8,2.27027e-07,20,FM308_stack
54.82,1.13513e-07,20,FM308_stack
54.84,1.13513e-07,20,FM308_stack
54.86,2.27027e-07,20,FM308_stack
54.88,1.13513e-07,20,FM308_stack
54.9,4.54054e-07,20,FM308_stack
54.92,1.13513e-07,20,FM308_stack
54.94,3.4054e-07,20,FM308_stack
54.96,2.27027e-07,20,FM308_stack
54.98,1.13513e-07,20,FM308_stack
55.0,2.27027e-07,20,FM308_stack
55.02,4.54054e-07,20,FM308_stack
55.04,3.4054e-07,20,FM308_stack
55.06,3.4054e-07,20,FM308_stack
55.08,4.54054e-07,20,FM308_stack
55.1,4.54054e-07,20,FM308_stack
55.12,0.0,20,FM308_stack
55.14,5.67567e-07,20,FM308_stack
55.16,1.13513e-07,20,FM308_stack
55.18,2.27027e-07,20,FM308_stack
55.2,0.0,20,FM308_stack
55.22,3.4054e-07,20,FM308_stack
55.24,5.67567e-07,20,FM308_stack
55.26,2.27027e-07,20,FM308_stack
55.28,1.13513e-07,20,FM308_stack
55.3,1.13513e-07,20,FM308_stack
55.32,0.0,20,FM308_stack
55.34,3.4054e-07,20,FM308_stack
55.36,0.0,20,FM308_stack
55.38,1.13513e-07,20,FM308_stack
55.4,1.13513e-07,20,FM308_stack
55.42,4.54054e-07,20,FM308_stack
55.44,1.13513e-07,20,FM308_stack
55.46,1.13513e-07,20,FM308_stack
55.48,5.67567e-07,20,FM308_stack
55.5,2.27027e-07,20,FM308_stack
55.52,1.13513e-07,20,FM308_stack
55.54,0.0,20,FM308_stack
55.56,2.27027e-07,20,FM308_stack
55.58,1.13513e-07,20,FM308_stack
55.6,5.67567e-07,20,FM308_stack
55.62,3.4054e-07,20,FM308_stack
55.64,3.4054e-07,20,FM308_stack
55.66,3.4054e-07,20,FM308_stack
55.68,0.0,20,FM308_stack
55.7,1.13513e-07,20,FM308_stack
55.72,1.13513e-07,20,FM308_stack
55.74,3.4054e-07,20,FM308_stack
55.76,6.81081e-07,20,FM308_stack
55.78,2.27027e-07,20,FM308_stack
55.8,3.4054e-07,20,FM308_stack
55.82,0.0,20,FM308_stack
55.84,5.67567e-07,20,FM308_stack
55.86,0.0,20,FM308_stack
55.88,1.13513e-07,20,FM308_stack
55.9,1.13513e-07,20,FM308_stack
55.92,2.27027e-07,20,FM308_stack
55.94,3.4054e-07,20,FM308_stack
55.96,1.13513e-07,20,FM308_stack
55.98,1.13513e-07,20,FM308_stack
56.0,2.27027e-07,20,FM308_stack
56.02,2.27027e-07,20,FM308_stack
56.04,0.0,20,FM308_stack
56.06,1.13513e-07,20,FM308_stack
56.08,5.67567e-07,20,FM308_stack
56.1,2.27027e-07,20,FM308_stack
56.12,3.4054e-07,20,FM308_stack
56.14,2.27027e-07,20,FM308_stack
56.16,0.0,20,FM308_stack
56.18,0.0,20,FM308_stack
56.2,2.27027e-07,20,FM308_stack
56.22,3.4054e-07,20,FM308_stack
56.24,0.0,20,FM308_stack
56.26,6.81081e-07,20,FM308_stack
56.28,3.4054e-07,20,FM308_stack
56.3,3.4054e-07,20,FM308_stack
56.32,0.0,20,FM308_stack
56.34,1.13513e-07,20,FM308_stack
56.36,2.27027e-07,20,FM308_stack
56.38,0.0,20,FM308_stack
56.4,5.67567e-07,20,FM308_stack
56.42,1.13513e-07,20,FM308_stack
56.44,2.27027e-07,20,FM308_stack
56.46,3.4054e-07,20,FM308_stack
56.48,3.4054e-07,20,FM308_stack
56.5,4.54054e-07,20,FM308_stack
56.52,1.13513e-07,20,FM308_stack
56.54,0.0,20,FM308_stack
56.56,0.0,20,FM308_stack
56.58,4.54054e-07,20,FM308_stack
56.6,3.4054e-07,20,FM308_stack
56.62,3.4054e-07,20,FM308_stack
56.64,1.13513e-07,20,FM308_stack
56.66,0.0,20,FM308_stack
56.68,5.67567e-07,20,FM308_stack
56.7,3.4054e-07,20,FM308_stack
56.72,1.13513e-07,20,FM308_stack
56.74,1.13513e-07,20,FM308_stack
56.76,1.13513e-07,20,FM308_stack
56.78,2.27027e-07,20,FM308_stack
56.8,1.13513e-07,20,FM308_stack
56.82,0.0,20,FM308_stack
56.84,0.0,20,FM308_stack
56.86,4.54054e-07,20,FM308_stack
56.88,3.4054e-07,20,FM308_stack
56.9,2.27027e-07,20,FM308_stack
56.92,1.13513e-07,20,FM308_stack
56.94,1.13513e-07,20,FM308_stack
56.96,0.0,20,FM308_stack
56.98,1.13513e-07,20,FM308_stack
57.0,0.0,20,FM308_stack
57.02,1.13513e-07,20,FM308_stack
57.04,3.4054e-07,20,FM308_stack
57.06,1.13513e-07,20,FM308_stack
57.08,3.4054e-07,20,FM308_stack
57.1,1.13513e-07,20,FM308_stack
57.12,0.0,20,FM308_stack
57.14,0.0,20,FM308_stack
57.16,4.54054e-07,20,FM308_stack
57.18,1.13513e-07,20,FM308_stack
57.2,1.13513e-07,20,FM308_stack
57.22,2.27027e-07,20,FM308_stack
57.24,1.13513e-07,20,FM308_stack
57.26,1.13513e-07,20,FM308_stack
57.28,4.54054e-07,20,FM308_stack
57.3,0.0,20,FM308_stack
57.32,0.0,20,FM308_stack
57.34,2.27027e-07,20,FM308_stack
57.36,0.0,20,FM308_stack
57.38,4.54054e-07,20,FM308_stack
57.4,3.4054e-07,20,FM308_stack
57.42,1.13513e-07,20,FM308_stack
57.44,2.27027e-07,20,FM308_stack
57.46,0.0,20,FM308_stack
57.48,1.13513e-07,20,FM308_stack
57.5,0.0,20,FM308_stack
57.52,5.67567e-07,20,FM308_stack
57.54,1.13513e-07,20,FM308_stack
57.56,3.4054e-07,20,FM308_stack
57.58,3.4054e-07,20,FM308_stack
57.6,1.13513e-07,20,FM308_stack
57.62,0.0,20,FM308_stack
57.64,2.27027e-07,20,FM308_stack
57.66,2.27027e-07,20,FM308_stack
57.68,3.4054e-07,20,FM308_stack
57.7,0.0,20,FM308_stack
57.72,1.13513e-07,20,FM308_stack
57.74,0.0,20,FM308_stack
57.76,1.13513e-07,20,FM308_stack
57.78,2.27027e-07,20,FM308_stack
57.8,2.27027e-07,20,FM308_stack
57.82,2.27027e-07,20,FM308_stack
57.84,0.0,20,FM308_stack
57.86,0.0,20,FM308_stack
57.88,1.13513e-07,20,FM308_stack
57.9,1.13513e-07,20,FM308_stack
57.92,0.0,20,FM308_stack
57.94,2.27027e-07,20,FM308_stack
57.96,2.27027e-07,20,FM308_stack
57.98,0.0,20,FM308_stack
58.0,4.54054e-07,20,FM308_stack
58.02,3.4054e-07,20,FM308_stack
58.04,1.13513e-07,20,FM308_stack
58.06,1.13513e-07,20,FM308_stack
58.08,2.27027e-07,20,FM308_stack
58.1,2.27027e-07,20,FM308_stack
58.12,0.0,20,FM308_stack
58.14,2.27027e-07,20,FM308_stack
58.16,2.27027e-07,20,FM308_stack
58.18,2.27027e-07,20,FM308_stack
58.2,1.13513e-07,20,FM308_stack
58.22,0.0,20,FM308_stack
58.24,1.13513e-07,20,FM308_stack
58.26,1.13513e-07,20,FM308_stack
58.28,2.27027e-07,20,FM308_stack
58.3,0.0,20,FM308_stack
58.32,1.13513e-07,20,FM308_stack
58.34,1.13513e-07,20,FM308_stack
58.36,2.27027e-07,20,FM308_stack
58.38,3.4054e-07,20,FM308_stack
58.4,1.13513e-07,20,FM308_stack
58.42,2.27027e-07,20,FM308_stack
58.44,2.27027e-07,20,FM308_stack
58.46,4.54054e-07,20,FM308_stack
58.48,2.27027e-07,20,FM308_stack
58.5,1.13513e-07,20,FM308_stack
58.52,1.13513e-07,20,FM308_stack
58.54,1.13513e-07,20,FM308_stack
58.56,4.54054e-07,20,FM308_stack
58.58,3.4054e-07,20,FM308_stack
58.6,0.0,20,FM308_stack
58.62,0.0,20,FM308_stack
58.64,3.4054e-07,20,FM308_stack
58.66,1.13513e-07,20,FM308_stack
58.68,2.27027e-07,20,FM308_stack
58.7,1.13513e-07,20,FM308_stack
58.72,2.27027e-07,20,FM308_stack
58.74,0.0,20,FM308_stack
58.76,2.27027e-07,20,FM308_stack
58.78,3.4054e-07,20,FM308_stack
58.8,0.0,20,FM308_stack
58.82,2.27027e-07,20,FM308_stack
58.84,0.0,20,FM308_stack
58.86,1.13513e-07,20,FM308_stack
58.88,2.27027e-07,20,FM308_stack
58.9,2.27027e-07,20,FM308_stack
58.92,2.27027e-07,20,FM308_stack
58.94,2.27027e-07,20,FM308_stack
58.96,2.27027e-07,20,FM308_stack
58.98,1.13513e-07,20,FM308_stack
59.0,2.27027e-07,20,FM308_stack
59.02,1.13513e-07,20,FM308_stack
59.04,3.4054e-07,20,FM308_stack
59.06,3.4054e-07,20,FM308_stack
59.08,0.0,20,FM308_stack
59.1,3.4054e-07,20,FM308_stack
59.12,3.4054e-07,20,FM308_stack
59.14,2.27027e-07,20,FM308_stack
59.16,4.54054e-07,20,FM308_stack
59.18,1.13513e-07,20,FM308_stack
59.2,3.4054e-07,20,FM308_stack
59.22,2.27027e-07,20,FM308_stack
59.24,3.4054e-07,20,FM308_stack
59.26,2.27027e-07,20,FM308_stack
59.28,3.4054e-07,20,FM308_stack
59.3,0.0,20,FM308_stack
59.32,3.4054e-07,20,FM308_stack
59.34,1.13513e-07,20,FM308_stack
59.36,0.0,20,FM308_stack
59.38,3.4054e-07,20,FM308_stack
59.4,3.4054e-07,20,FM308_stack
59.42,2.27027e-07,20,FM308_stack
59.44,1.13513e-07,20,FM308_stack
59.46,2.27027e-07,20,FM308_stack
59.48,1.13513e-07,20,FM308_stack
59.5,2.27027e-07,20,FM308_stack
59.52,0.0,20,FM308_stack
59.54,3.4054e-07,20,FM308_stack
59.56,3.4054e-07,20,FM308_stack
59.58,1.13513e-07,20,FM308_stack
59.6,3.4054e-07,20,FM308_stack
59.62,2.27027e-07,20,FM308_stack
59.64,0.0,20,FM308_stack
59.66,2.27027e-07,20,FM308_stack
59.68,1.13513e-07,20,FM308_stack
59.7,1.13513e-07,20,FM308_stack
59.72,4.54054e-07,20,FM308_stack
59.74,3.4054e-07,20,FM308_stack
59.76,2.27027e-07,20,FM308_stack
59.78,2.27027e-07,20,FM308_stack
59.8,2.27027e-07,20,FM308_stack
59.82,0.0,20,FM308_stack
59.84,1.13513e-07,20,FM308_stack
59.86,0.0,20,FM308_stack
59.88,0.0,20,FM308_stack
59.9,2.27027e-07,20,FM308_stack
59.92,0.0,20,FM308_stack
59.94,2.27027e-07,20,FM308_stack
59.96,1.13513e-07,20,FM308_stack
59.98,3.4054e-07,20,FM308_stack
60.0,5.67567e-07,20,FM308_stack