File: src/acoustic_resonators/xrays/processed_data/xrd_temperature_params.csv
temperature,number,amp1,cen1,sigma1,fraction1,amp2,cen2,sigma2,fraction2,c1,c2
27.0,1,1.35265e+06,46.4692,0.00530607,0.731394,36.3939,45.6965,0.121421,0.858764,0.390523,0.396763
100.0,2,2.8273e+06,46.4326,0.00488423,0.854681,62.3985,45.6884,0.161906,0.314258,0.390814,0.39683
150.0,3,3.98198e+06,46.4086,0.00498922,0.900266,59.8101,45.6538,0.148854,0.349043,0.391004,0.397115
200.0,4,2.25755e+06,46.3854,0.00510621,0.829116,62.4214,45.6244,0.137984,0.345508,0.391189,0.397357
250.0,5,2.45327e+06,46.3603,0.00510727,0.846318,70.6688,45.5906,0.126174,0.388583,0.39139,0.397636
300.0,6,2.12253e+06,46.334,0.00558399,0.862781,99.4573,45.5857,0.164943,0.435404,0.391599,0.397676
350.0,7,1.75267e+06,46.3075,0.00510749,0.786762,63.8301,45.5393,0.127788,0.415266,0.391811,0.39806
400.0,8,2.51904e+06,46.2806,0.00504801,0.852341,64.2735,45.5172,0.138048,0.588172,0.392026,0.398243
450.0,9,2.23158e+06,46.2545,0.00529499,0.855654,59.8669,45.5231,0.148699,0.645505,0.392236,0.398194
500.0,10,3.23391e+06,46.2296,0.00498223,0.894815,61.0918,45.537,0.135156,0.658277,0.392435,0.398079
550.0,11,2.56158e+06,46.2054,0.00480935,0.857498,52.8253,45.5599,0.157927,0.752985,0.392629,0.39789
600.0,12,1.99121e+06,46.1824,0.00505377,0.855897,48.6142,45.5666,0.157347,0.744519,0.392814,0.397834
650.0,13,2.74664e+06,46.1587,0.00517327,0.910122,57.8865,45.5757,0.15292,0.842934,0.393004,0.397759
700.0,14,3.44392e+06,46.1355,0.0050537,0.92631,44.112,45.6075,0.174706,0.939325,0.393191,0.397497
750.0,15,2.73011e+06,46.1121,0.00492365,0.868037,78.2774,45.5862,0.14994,0.678901,0.39338,0.397672
25.0,16,2.37231e+06,46.4688,0.00506116,0.860323,33.7639,45.9871,0.158505,0.3736,0.390526,0.394391